Sept. 4, 2020   12:22:40
A.C. Impedance
File: c:\users\als\desktop\katayama\2020\tokubuchi\20200904 peis\same sample diff t_600_12_2.txt
Data Source:  Experiment
Instrument Model:  CHI660A
Header: 
Note: 

Init E (V) = -0.171
High Frequency (Hz) = 1e+4
Low Frequency (Hz) = 0.001
Imp FT
Amplitude (V) = 0.005
Quiet Time (sec) = 2
Cycles (.1-1Hz) = 5
Cycles (.01-.1Hz) = 2
Cycles (.001-.01Hz) = 1

Freq/Hz, Z'/ohm, Z"/ohm, Z/ohm, Phase/deg

9.6680e+3, 1.2217e+1, -9.4671e+0, 1.5455e+1, -37.8
8.1055e+3, 1.2513e+1, -1.0788e+1, 1.6522e+1, -40.8
6.6406e+3, 1.2739e+1, -1.2048e+1, 1.7533e+1, -43.4
5.4687e+3, 1.2928e+1, -1.3929e+1, 1.9004e+1, -47.1
4.5898e+3, 1.2954e+1, -1.6136e+1, 2.0692e+1, -51.2
3.7109e+3, 1.3166e+1, -1.9109e+1, 2.3206e+1, -55.4
3.1250e+3, 1.3390e+1, -2.2612e+1, 2.6279e+1, -59.4
2.5391e+3, 1.3691e+1, -2.6656e+1, 2.9967e+1, -62.8
2.1484e+3, 1.4166e+1, -3.1557e+1, 3.4591e+1, -65.8
1.7578e+3, 1.4857e+1, -3.7550e+1, 4.0383e+1, -68.4
1.4648e+3, 1.5899e+1, -4.5003e+1, 4.7729e+1, -70.5
1.1719e+3, 1.7396e+1, -5.5251e+1, 5.7925e+1, -72.5
9.6680e+2, 1.9471e+1, -6.7452e+1, 7.0206e+1, -73.9
8.1055e+2, 2.1778e+1, -8.1005e+1, 8.3881e+1, -75.0
6.6406e+2, 2.3033e+1, -9.7430e+1, 1.0012e+2, -76.7
5.4688e+2, 2.5402e+1, -1.1753e+2, 1.2025e+2, -77.8
4.5898e+2, 2.8652e+1, -1.4230e+2, 1.4516e+2, -78.6
3.7109e+2, 3.1719e+1, -1.7373e+2, 1.7660e+2, -79.7
3.1250e+2, 3.6870e+1, -2.1107e+2, 2.1427e+2, -80.1
2.5391e+2, 4.7626e+1, -2.5068e+2, 2.5517e+2, -79.2
2.1484e+2, 5.6975e+1, -2.9403e+2, 2.9950e+2, -79.0
1.7578e+2, 6.0914e+1, -3.3927e+2, 3.4469e+2, -79.8
1.4648e+2, 6.9728e+1, -4.0055e+2, 4.0657e+2, -80.1
1.1719e+2, 1.1270e+2, -4.8304e+2, 4.9601e+2, -76.9
9.7656e+1, 1.7755e+2, -5.8972e+2, 6.1586e+2, -73.2
8.1380e+1, 2.1347e+2, -6.8116e+2, 7.1382e+2, -72.6
6.9754e+1, 2.2176e+2, -7.7318e+2, 8.0436e+2, -74.0
5.7445e+1, 2.5711e+2, -8.9871e+2, 9.3476e+2, -74.0
4.6503e+1, 3.4413e+2, -1.0571e+3, 1.1117e+3, -72.0
3.7560e+1, 4.3088e+2, -1.2385e+3, 1.3114e+3, -70.8
3.1502e+1, 5.5521e+2, -1.4178e+3, 1.5226e+3, -68.6
2.5699e+1, 7.3321e+2, -1.6120e+3, 1.7709e+3, -65.5
2.1230e+1, 9.2095e+2, -1.8267e+3, 2.0457e+3, -63.2
1.7439e+1, 1.1270e+3, -2.0578e+3, 2.3462e+3, -61.3
1.4361e+1, 1.3448e+3, -2.2887e+3, 2.6545e+3, -59.6
1.1909e+1, 1.5818e+3, -2.5201e+3, 2.9754e+3, -57.9
9.7656e+0, 1.8383e+3, -2.7539e+3, 3.3111e+3, -56.3
8.0708e+0, 2.0914e+3, -3.0128e+3, 3.6676e+3, -55.2
6.6433e+0, 2.3537e+3, -3.3194e+3, 4.0692e+3, -54.7
5.4863e+0, 2.6194e+3, -3.6567e+3, 4.4981e+3, -54.4
4.5422e+0, 2.8816e+3, -4.0218e+3, 4.9475e+3, -54.4
3.7416e+0, 3.1808e+3, -4.4610e+3, 5.4789e+3, -54.5
3.0904e+0, 3.4689e+3, -4.9928e+3, 6.0795e+3, -55.2
2.5498e+0, 3.7330e+3, -5.6632e+3, 6.7828e+3, -56.6
2.1047e+0, 4.1108e+3, -6.5073e+3, 7.6970e+3, -57.7
1.7377e+0, 4.4916e+3, -7.5055e+3, 8.7468e+3, -59.1
1.4340e+0, 4.7534e+3, -8.6668e+3, 9.8847e+3, -61.3
1.1837e+0, 5.0062e+3, -1.0105e+4, 1.1277e+4, -63.6
9.7656e-1, 5.3462e+3, -1.1772e+4, 1.2929e+4, -65.6
8.0708e-1, 5.8882e+3, -1.3822e+4, 1.5024e+4, -66.9
6.6433e-1, 6.4593e+3, -1.6460e+4, 1.7682e+4, -68.6
5.4863e-1, 7.1461e+3, -1.9119e+4, 2.0410e+4, -69.5
4.5422e-1, 7.9049e+3, -2.2054e+4, 2.3428e+4, -70.3
3.7416e-1, 8.4172e+3, -2.5915e+4, 2.7248e+4, -72.0
3.0904e-1, 9.2330e+3, -3.1429e+4, 3.2757e+4, -73.6
2.5498e-1, 1.0692e+4, -3.7400e+4, 3.8898e+4, -74.0
2.1047e-1, 1.3162e+4, -4.4048e+4, 4.5972e+4, -73.4
1.7377e-1, 1.6915e+4, -5.2093e+4, 5.4770e+4, -72.0
1.4340e-1, 2.0672e+4, -6.1942e+4, 6.5300e+4, -71.5
1.1837e-1, 2.5359e+4, -7.4466e+4, 7.8666e+4, -71.2
9.7656e-2, 2.6279e+4, -9.0791e+4, 9.4517e+4, -73.9
8.0708e-2, 3.2762e+4, -1.0495e+5, 1.0994e+5, -72.7
6.6433e-2, 4.5625e+4, -1.1819e+5, 1.2669e+5, -68.9
5.4863e-2, 8.0147e+4, -1.6266e+5, 1.8133e+5, -63.8
4.5422e-2, 9.4633e+4, -2.1474e+5, 2.3466e+5, -66.2
3.7416e-2, 7.9369e+4, -2.4545e+5, 2.5796e+5, -72.1
3.0904e-2, 8.6831e+4, -2.4684e+5, 2.6167e+5, -70.6
2.5498e-2, 8.5232e+4, -2.2956e+5, 2.4487e+5, -69.6
2.1047e-2, 1.0680e+5, -2.6538e+5, 2.8607e+5, -68.1
1.7377e-2, 1.7611e+5, -3.2458e+5, 3.6928e+5, -61.5
1.4340e-2, 2.5493e+5, -3.3092e+5, 4.1773e+5, -52.4
1.1837e-2, 3.3808e+5, -2.7944e+5, 4.3861e+5, -39.6
